{ Units, Wavelength Units } SI Microns
{ Thickness } 4.699
{ Conductivity } 1
{ IR Transmittance } TIR=0
{ Emissivity, front back } Emis= 0.84 0.84
{ }
{ Ef_Source: Material }
{ Eb_Source: Material }
{ IGDB_Checksum: 396538674 }
{ Product Name: Optifloat™ Clear }
{ Manufacturer: Pilkington North America }
{ NFRC ID: 9803 }
{ Type: Monolithic }
{ Material: Glass }
{ Coating Name: N/A }
{ Coated Side: Neither }
{ Substrate Filename: N/A }
{ Appearance: Clear }
{ Acceptance: # }
{ Uses:  }
{ Availability:   }
{ Structure:  }
0.300    0.0000    0.0440    0.0440
0.305    0.0000    0.0440    0.0440
0.310    0.0020    0.0440    0.0440
0.315    0.0090    0.0430    0.0430
0.320    0.0380    0.0440    0.0440
0.325    0.1000    0.0460    0.0460
0.330    0.2130    0.0500    0.0500
0.335    0.3560    0.0560    0.0560
0.340    0.4970    0.0640    0.0640
0.345    0.6170    0.0710    0.0710
0.350    0.7070    0.0760    0.0760
0.355    0.7700    0.0800    0.0800
0.360    0.8120    0.0830    0.0830
0.365    0.8380    0.0850    0.0850
0.370    0.8480    0.0850    0.0850
0.375    0.8420    0.0840    0.0840
0.380    0.8290    0.0830    0.0830
0.385    0.8420    0.0840    0.0840
0.390    0.8630    0.0860    0.0860
0.395    0.8760    0.0860    0.0860
0.400    0.8820    0.0860    0.0860
0.405    0.8840    0.0860    0.0860
0.410    0.8830    0.0860    0.0860
0.415    0.8810    0.0860    0.0860
0.420    0.8810    0.0850    0.0850
0.425    0.8810    0.0850    0.0850
0.430    0.8810    0.0850    0.0850
0.435    0.8810    0.0850    0.0850
0.440    0.8810    0.0840    0.0840
0.445    0.8830    0.0840    0.0840
0.450    0.8860    0.0840    0.0840
0.455    0.8890    0.0840    0.0840
0.460    0.8910    0.0840    0.0840
0.465    0.8930    0.0840    0.0840
0.470    0.8940    0.0840    0.0840
0.475    0.8950    0.0840    0.0840
0.480    0.8950    0.0840    0.0840
0.485    0.8960    0.0840    0.0840
0.490    0.8960    0.0840    0.0840
0.495    0.8960    0.0840    0.0840
0.500    0.8970    0.0840    0.0840
0.505    0.8970    0.0830    0.0830
0.510    0.8970    0.0830    0.0830
0.515    0.8970    0.0830    0.0830
0.520    0.8970    0.0830    0.0830
0.525    0.8970    0.0830    0.0830
0.530    0.8960    0.0830    0.0830
0.535    0.8960    0.0830    0.0830
0.540    0.8950    0.0830    0.0830
0.545    0.8950    0.0830    0.0830
0.550    0.8940    0.0830    0.0830
0.555    0.8930    0.0820    0.0820
0.560    0.8920    0.0820    0.0820
0.565    0.8910    0.0820    0.0820
0.570    0.8890    0.0820    0.0820
0.575    0.8880    0.0820    0.0820
0.580    0.8860    0.0810    0.0810
0.585    0.8840    0.0810    0.0810
0.590    0.8820    0.0810    0.0810
0.595    0.8800    0.0810    0.0810
0.600    0.8790    0.0800    0.0800
0.605    0.8760    0.0800    0.0800
0.610    0.8740    0.0800    0.0800
0.615    0.8710    0.0800    0.0800
0.620    0.8690    0.0790    0.0790
0.625    0.8670    0.0790    0.0790
0.630    0.8640    0.0790    0.0790
0.635    0.8610    0.0790    0.0790
0.640    0.8590    0.0780    0.0780
0.645    0.8560    0.0780    0.0780
0.650    0.8530    0.0780    0.0780
0.655    0.8500    0.0780    0.0780
0.660    0.8480    0.0770    0.0770
0.665    0.8450    0.0770    0.0770
0.670    0.8420    0.0770    0.0770
0.675    0.8390    0.0760    0.0760
0.680    0.8360    0.0760    0.0760
0.685    0.8320    0.0760    0.0760
0.690    0.8290    0.0750    0.0750
0.695    0.8250    0.0750    0.0750
0.700    0.8220    0.0750    0.0750
0.705    0.8190    0.0750    0.0750
0.710    0.8160    0.0750    0.0750
0.715    0.8120    0.0740    0.0740
0.720    0.8090    0.0740    0.0740
0.725    0.8050    0.0740    0.0740
0.730    0.8020    0.0730    0.0730
0.735    0.7990    0.0730    0.0730
0.740    0.7950    0.0730    0.0730
0.745    0.7920    0.0730    0.0730
0.750    0.7880    0.0720    0.0720
0.755    0.7850    0.0720    0.0720
0.760    0.7810    0.0720    0.0720
0.765    0.7780    0.0710    0.0710
0.770    0.7750    0.0710    0.0710
0.775    0.7710    0.0710    0.0710
0.780    0.7680    0.0710    0.0710
0.785    0.7650    0.0710    0.0710
0.790    0.7620    0.0710    0.0710
0.795    0.7590    0.0700    0.0700
0.800    0.7570    0.0700    0.0700
0.805    0.7530    0.0700    0.0700
0.810    0.7500    0.0700    0.0700
0.815    0.7470    0.0690    0.0690
0.820    0.7450    0.0690    0.0690
0.825    0.7420    0.0690    0.0690
0.830    0.7400    0.0690    0.0690
0.835    0.7380    0.0690    0.0690
0.840    0.7360    0.0690    0.0690
0.845    0.7330    0.0680    0.0680
0.850    0.7310    0.0680    0.0680
0.855    0.7280    0.0670    0.0670
0.860    0.7260    0.0660    0.0660
0.865    0.7240    0.0830    0.0830
0.870    0.7230    0.0840    0.0840
0.875    0.7210    0.0800    0.0800
0.880    0.7190    0.0770    0.0770
0.885    0.7180    0.0810    0.0810
0.890    0.7150    0.0810    0.0810
0.895    0.7140    0.0810    0.0810
0.900    0.7130    0.0810    0.0810
0.905    0.7110    0.0760    0.0760
0.910    0.7100    0.0790    0.0790
0.915    0.7090    0.0790    0.0790
0.920    0.7080    0.0770    0.0770
0.925    0.7060    0.0760    0.0760
0.930    0.7050    0.0760    0.0760
0.935    0.7040    0.0760    0.0760
0.940    0.7030    0.0770    0.0770
0.945    0.7020    0.0750    0.0750
0.950    0.7010    0.0730    0.0730
0.955    0.7010    0.0700    0.0700
0.960    0.6990    0.0650    0.0650
0.965    0.7000    0.0640    0.0640
0.970    0.6980    0.0650    0.0650
0.975    0.6980    0.0620    0.0620
0.980    0.6980    0.0690    0.0690
0.985    0.6970    0.0640    0.0640
0.990    0.6950    0.0650    0.0650
0.995    0.6960    0.0680    0.0680
1.000    0.6950    0.0640    0.0640
1.005    0.6950    0.0650    0.0650
1.010    0.6940    0.0630    0.0630
1.015    0.6940    0.0640    0.0640
1.020    0.6940    0.0650    0.0650
1.025    0.6940    0.0690    0.0690
1.030    0.6930    0.0640    0.0640
1.035    0.6930    0.0650    0.0650
1.040    0.6930    0.0670    0.0670
1.045    0.6930    0.0620    0.0620
1.050    0.6920    0.0650    0.0650
1.055    0.6930    0.0670    0.0670
1.060    0.6920    0.0640    0.0640
1.065    0.6920    0.0670    0.0670
1.070    0.6920    0.0620    0.0620
1.075    0.6920    0.0640    0.0640
1.080    0.6920    0.0640    0.0640
1.085    0.6930    0.0630    0.0630
1.090    0.6920    0.0640    0.0640
1.095    0.6930    0.0660    0.0660
1.100    0.6920    0.0630    0.0630
1.105    0.6920    0.0660    0.0660
1.110    0.6930    0.0660    0.0660
1.115    0.6920    0.0670    0.0670
1.120    0.6930    0.0650    0.0650
1.125    0.6940    0.0620    0.0620
1.130    0.6940    0.0660    0.0660
1.135    0.6950    0.0670    0.0670
1.140    0.6950    0.0650    0.0650
1.145    0.6950    0.0630    0.0630
1.150    0.6960    0.0660    0.0660
1.155    0.6950    0.0620    0.0620
1.160    0.6960    0.0640    0.0640
1.165    0.6960    0.0670    0.0670
1.170    0.6960    0.0660    0.0660
1.175    0.6980    0.0650    0.0650
1.180    0.6980    0.0640    0.0640
1.185    0.6990    0.0630    0.0630
1.190    0.6980    0.0620    0.0620
1.195    0.6990    0.0660    0.0660
1.200    0.7000    0.0630    0.0630
1.205    0.6990    0.0640    0.0640
1.210    0.7010    0.0630    0.0630
1.215    0.7010    0.0660    0.0660
1.220    0.7020    0.0620    0.0620
1.225    0.7030    0.0640    0.0640
1.230    0.7030    0.0620    0.0620
1.235    0.7040    0.0650    0.0650
1.240    0.7050    0.0630    0.0630
1.245    0.7050    0.0670    0.0670
1.250    0.7070    0.0620    0.0620
1.255    0.7080    0.0640    0.0640
1.260    0.7090    0.0660    0.0660
1.265    0.7100    0.0620    0.0620
1.270    0.7110    0.0660    0.0660
1.275    0.7120    0.0660    0.0660
1.280    0.7120    0.0630    0.0630
1.285    0.7140    0.0670    0.0670
1.290    0.7140    0.0670    0.0670
1.295    0.7170    0.0650    0.0650
1.300    0.7170    0.0660    0.0660
1.305    0.7180    0.0670    0.0670
1.310    0.7190    0.0690    0.0690
1.315    0.7200    0.0670    0.0670
1.320    0.7220    0.0680    0.0680
1.325    0.7230    0.0660    0.0660
1.330    0.7240    0.0660    0.0660
1.335    0.7250    0.0640    0.0640
1.340    0.7260    0.0670    0.0670
1.345    0.7280    0.0630    0.0630
1.350    0.7290    0.0650    0.0650
1.355    0.7290    0.0690    0.0690
1.360    0.7320    0.0660    0.0660
1.365    0.7350    0.0660    0.0660
1.370    0.7360    0.0640    0.0640
1.375    0.7350    0.0670    0.0670
1.380    0.7380    0.0700    0.0700
1.385    0.7390    0.0670    0.0670
1.390    0.7390    0.0740    0.0740
1.395    0.7400    0.0670    0.0670
1.400    0.7420    0.0670    0.0670
1.405    0.7430    0.0680    0.0680
1.410    0.7440    0.0670    0.0670
1.415    0.7460    0.0670    0.0670
1.420    0.7470    0.0660    0.0660
1.425    0.7490    0.0670    0.0670
1.430    0.7510    0.0650    0.0650
1.435    0.7530    0.0680    0.0680
1.440    0.7540    0.0650    0.0650
1.445    0.7560    0.0690    0.0690
1.450    0.7600    0.0640    0.0640
1.455    0.7600    0.0680    0.0680
1.460    0.7610    0.0670    0.0670
1.465    0.7640    0.0680    0.0680
1.470    0.7650    0.0690    0.0690
1.475    0.7660    0.0670    0.0670
1.480    0.7690    0.0670    0.0670
1.485    0.7700    0.0700    0.0700
1.490    0.7730    0.0680    0.0680
1.495    0.7730    0.0660    0.0660
1.500    0.7740    0.0680    0.0680
1.505    0.7760    0.0680    0.0680
1.510    0.7770    0.0680    0.0680
1.515    0.7790    0.0680    0.0680
1.520    0.7800    0.0680    0.0680
1.525    0.7810    0.0690    0.0690
1.530    0.7830    0.0670    0.0670
1.535    0.7840    0.0700    0.0700
1.540    0.7860    0.0680    0.0680
1.545    0.7860    0.0670    0.0670
1.550    0.7880    0.0670    0.0670
1.555    0.7890    0.0670    0.0670
1.560    0.7900    0.0680    0.0680
1.565    0.7910    0.0680    0.0680
1.570    0.7920    0.0700    0.0700
1.575    0.7920    0.0670    0.0670
1.580    0.7940    0.0650    0.0650
1.585    0.7950    0.0690    0.0690
1.590    0.7970    0.0700    0.0700
1.595    0.7970    0.0690    0.0690
1.600    0.7970    0.0720    0.0720
1.605    0.7980    0.0660    0.0660
1.610    0.8000    0.0700    0.0700
1.615    0.8000    0.0690    0.0690
1.620    0.8010    0.0690    0.0690
1.625    0.8010    0.0690    0.0690
1.630    0.8010    0.0720    0.0720
1.635    0.8030    0.0670    0.0670
1.640    0.8030    0.0650    0.0650
1.645    0.8040    0.0680    0.0680
1.650    0.8030    0.0690    0.0690
1.655    0.8030    0.0640    0.0640
1.660    0.8040    0.0710    0.0710
1.665    0.8050    0.0690    0.0690
1.670    0.8060    0.0670    0.0670
1.675    0.8060    0.0690    0.0690
1.680    0.8050    0.0700    0.0700
1.685    0.8070    0.0700    0.0700
1.690    0.8060    0.0670    0.0670
1.695    0.8060    0.0680    0.0680
1.700    0.8070    0.0670    0.0670
1.705    0.8060    0.0700    0.0700
1.710    0.8060    0.0700    0.0700
1.715    0.8070    0.0690    0.0690
1.720    0.8070    0.0710    0.0710
1.725    0.8070    0.0700    0.0700
1.730    0.8060    0.0700    0.0700
1.735    0.8060    0.0690    0.0690
1.740    0.8060    0.0710    0.0710
1.745    0.8060    0.0710    0.0710
1.750    0.8060    0.0690    0.0690
1.755    0.8060    0.0690    0.0690
1.760    0.8070    0.0710    0.0710
1.765    0.8050    0.0700    0.0700
1.770    0.8040    0.0720    0.0720
1.775    0.8060    0.0730    0.0730
1.780    0.8050    0.0710    0.0710
1.785    0.8060    0.0690    0.0690
1.790    0.8050    0.0690    0.0690
1.795    0.8040    0.0660    0.0660
1.800    0.8070    0.0680    0.0680
1.805    0.8040    0.0660    0.0660
1.810    0.8040    0.0640    0.0640
1.815    0.8040    0.0650    0.0650
1.820    0.8040    0.0660    0.0660
1.825    0.8030    0.0650    0.0650
1.830    0.8040    0.0630    0.0630
1.835    0.8030    0.0660    0.0660
1.840    0.8030    0.0670    0.0670
1.845    0.8030    0.0680    0.0680
1.850    0.8030    0.0660    0.0660
1.855    0.8030    0.0660    0.0660
1.860    0.8030    0.0650    0.0650
1.865    0.8020    0.0650    0.0650
1.870    0.8020    0.0720    0.0720
1.875    0.8030    0.0690    0.0690
1.880    0.8030    0.0660    0.0660
1.885    0.8030    0.0680    0.0680
1.890    0.8020    0.0640    0.0640
1.895    0.8020    0.0640    0.0640
1.900    0.8030    0.0610    0.0610
1.905    0.8010    0.0650    0.0650
1.910    0.8020    0.0680    0.0680
1.915    0.8010    0.0720    0.0720
1.920    0.8010    0.0730    0.0730
1.925    0.8020    0.0730    0.0730
1.930    0.8010    0.0810    0.0810
1.935    0.8010    0.0830    0.0830
1.940    0.8010    0.0780    0.0780
1.945    0.8020    0.0750    0.0750
1.950    0.8010    0.0770    0.0770
1.955    0.8010    0.0750    0.0750
1.960    0.8020    0.0720    0.0720
1.965    0.8010    0.0700    0.0700
1.970    0.8010    0.0710    0.0710
1.975    0.8010    0.0680    0.0680
1.980    0.8030    0.0690    0.0690
1.985    0.8020    0.0690    0.0690
1.990    0.8010    0.0680    0.0680
1.995    0.8020    0.0660    0.0660
2.000    0.8010    0.0680    0.0680
2.005    0.8010    0.0670    0.0670
2.010    0.8020    0.0700    0.0700
2.015    0.8020    0.0640    0.0640
2.020    0.8020    0.0690    0.0690
2.025    0.8020    0.0660    0.0660
2.030    0.8020    0.0650    0.0650
2.035    0.8020    0.0680    0.0680
2.040    0.8020    0.0660    0.0660
2.045    0.8020    0.0660    0.0660
2.050    0.8030    0.0670    0.0670
2.055    0.8020    0.0660    0.0660
2.060    0.8040    0.0670    0.0670
2.065    0.8030    0.0680    0.0680
2.070    0.8030    0.0660    0.0660
2.075    0.8030    0.0650    0.0650
2.080    0.8030    0.0630    0.0630
2.085    0.8040    0.0650    0.0650
2.090    0.8040    0.0670    0.0670
2.095    0.8040    0.0620    0.0620
2.100    0.8040    0.0670    0.0670
2.150    0.8060    0.0660    0.0660
2.200    0.8010    0.0710    0.0710
2.250    0.8050    0.0700    0.0700
2.300    0.8090    0.0650    0.0650
2.350    0.8120    0.0660    0.0660
2.400    0.8140    0.0710    0.0710
2.450    0.8160    0.0680    0.0680
2.500    0.8150    0.0670    0.0670

